 Cr/V d=3.5nm s=0.2nm N=40 at 350.eV, P=1.
 Angle (deg), Reflectivity, Phase(deg)
   0.000000  1.00000  180.000
   0.100000  0.992539  178.189
   0.200000  0.985128  176.377
   0.300000  0.977761  174.565
   0.400000  0.970432  172.751
   0.500000  0.963136  170.935
   0.600000  0.955868  169.117
   0.700000  0.948620  167.296
   0.800000  0.941390  165.472
   0.900000  0.934168  163.645
   1.00000  0.926953  161.813
   1.10000  0.919737  159.977
   1.20000  0.912515  158.135
   1.30000  0.905283  156.288
   1.40000  0.898032  154.435
   1.50000  0.890759  152.575
   1.60000  0.883456  150.707
   1.70000  0.876119  148.832
   1.80000  0.868742  146.948
   1.90000  0.861317  145.056
   2.00000  0.853838  143.153
   2.10000  0.846297  141.240
   2.20000  0.838689  139.316
   2.30000  0.831003  137.381
   2.40000  0.823235  135.433
   2.50000  0.815373  133.471
   2.60000  0.807409  131.495
   2.70000  0.799335  129.504
   2.80000  0.791139  127.498
   2.90000  0.782812  125.474
   3.00000  0.774340  123.433
   3.10000  0.765712  121.372
   3.20000  0.756915  119.292
   3.30000  0.747933  117.190
   3.40000  0.738751  115.066
   3.50000  0.729351  112.918
   3.60000  0.719715  110.744
   3.70000  0.709823  108.543
   3.80000  0.699650  106.314
   3.90000  0.689172  104.055
   4.00000  0.678362  101.763
   4.10000  0.667181  99.4370
   4.20000  0.655608  97.0748
   4.30000  0.643600  94.6741
   4.40000  0.631114  92.2326
   4.50000  0.618099  89.7473
   4.60000  0.604516  87.2169
   4.70000  0.590289  84.6373
   4.80000  0.575355  82.0060
   4.90000  0.559649  79.3213
   5.00000  0.543092  76.5810
   5.10000  0.525585  73.7823
   5.20000  0.507048  70.9256
   5.30000  0.487377  68.0105
   5.40000  0.466490  65.0407
   5.50000  0.444319  62.0230
   5.60000  0.420810  58.9677
   5.70000  0.395993  55.8934
   5.80000  0.369994  52.8276
   5.90000  0.343033  49.8047
   6.00000  0.315531  46.8711
   6.10000  0.288029  44.0755
   6.20000  0.261173  41.4658
   6.30000  0.235592  39.0786
   6.40000  0.211768  36.9327
   6.50000  0.190029  35.0311
   6.60000  0.170488  33.3616
   6.70000  0.153123  31.9040
   6.80000  0.137781  30.6326
   6.90000  0.124271  29.5224
   7.00000  0.112389  28.5520
   7.10000  0.101937  27.7010
   7.20000  9.273331E-02  26.9486
   7.30000  8.458560E-02  26.2789
   7.40000  7.735477E-02  25.6868
   7.50000  7.093982E-02  25.1652
   7.60000  6.524120E-02  24.6943
   7.70000  6.013842E-02  24.2568
   7.80000  5.552642E-02  23.8606
   7.90000  5.136623E-02  23.5224
   8.00000  4.765485E-02  23.2289
   8.10000  4.433163E-02  22.9399
   8.20000  4.128622E-02  22.6430
   8.30000  3.845660E-02  22.3790
   8.40000  3.587412E-02  22.1872
   8.50000  3.358059E-02  22.0381
   8.60000  3.153208E-02  21.8562
   8.70000  2.961602E-02  21.6194
   8.80000  2.777036E-02  21.4018
   8.90000  2.604465E-02  21.2884
   9.00000  2.452554E-02  21.2567
   9.10000  2.320802E-02  21.1841
   9.20000  2.198214E-02  20.9914
   9.30000  2.074913E-02  20.7521
   9.40000  1.952673E-02  20.6237
   9.50000  1.842481E-02  20.6639
   9.60000  1.750979E-02  20.7423
   9.70000  1.672307E-02  20.6685
   9.80000  1.593249E-02  20.4147
   9.90000  1.507434E-02  20.1636
   10.0000  1.421636E-02  20.1278
   10.1000  1.348370E-02  20.3119
   10.2000  1.292096E-02  20.4771
   10.3000  1.244097E-02  20.3822
   10.4000  1.191095E-02  20.0492
   10.5000  1.128567E-02  19.7589
   10.6000  1.065057E-02  19.7835
   10.7000  1.013305E-02  20.1009
   10.8000  9.774741E-03  20.3771
   10.9000  9.487123E-03  20.2936
   11.0000  9.137399E-03  19.8780
   11.1000  8.675445E-03  19.4905
   11.2000  8.179534E-03  19.5003
   11.3000  7.779481E-03  19.9265
   11.4000  7.532842E-03  20.3705
   11.5000  7.370297E-03  20.3853
   11.6000  7.160196E-03  19.9205
   11.7000  6.830269E-03  19.3718
   11.8000  6.431035E-03  19.2423
   11.9000  6.088651E-03  19.6964
   12.0000  5.888185E-03  20.3531
   12.1000  5.797771E-03  20.6046
   12.2000  5.698391E-03  20.2023
   12.3000  5.489320E-03  19.4796
   12.4000  5.176604E-03  19.0627
   12.5000  4.864865E-03  19.3655
   12.6000  4.664425E-03  20.1867
   12.7000  4.595353E-03  20.8147
   12.8000  4.571269E-03  20.6888
   12.9000  4.475280E-03  19.9093
   13.0000  4.259352E-03  19.1218
   13.1000  3.983236E-03  19.0163
   13.2000  3.761947E-03  19.7682
   13.3000  3.667457E-03  20.7900
   13.4000  3.670010E-03  21.2036
   13.5000  3.664135E-03  20.6653
   13.6000  3.557544E-03  19.6200
   13.7000  3.346225E-03  18.9141
   13.8000  3.116026E-03  19.1894
   13.9000  2.969805E-03  20.3251
   14.0000  2.944113E-03  21.4043
   14.1000  2.980469E-03  21.5270
   14.2000  2.974660E-03  20.6199
   14.3000  2.861217E-03  19.4054
   14.4000  2.664597E-03  18.8493
   14.5000  2.477526E-03  19.4984
   14.6000  2.385816E-03  20.9393
   14.7000  2.400603E-03  22.0038
   14.8000  2.451299E-03  21.8417
   14.9000  2.442693E-03  20.6273
   15.0000  2.329899E-03  19.2929
   15.1000  2.152010E-03  18.8843
   15.2000  1.999463E-03  19.8593
   15.3000  1.943151E-03  21.5547
   15.4000  1.979936E-03  22.6035
   15.5000  2.036763E-03  22.2110
   15.6000  2.028393E-03  20.7423
   15.7000  1.922550E-03  19.2882
   15.8000  1.763194E-03  18.9705
   15.9000  1.635194E-03  20.2027
   16.0000  1.599181E-03  22.1367
   16.1000  1.646385E-03  23.2284
   16.2000  1.706779E-03  22.6889
   16.3000  1.703098E-03  21.0076
   16.4000  1.608675E-03  19.3969
   16.5000  1.466006E-03  19.0706
   16.6000  1.353477E-03  20.4740
   16.7000  1.326403E-03  22.6561
   16.8000  1.376630E-03  23.8922
   16.9000  1.440060E-03  23.3158
   17.0000  1.445100E-03  21.4634
   17.1000  1.365340E-03  19.6392
   17.2000  1.237563E-03  19.1725
   17.3000  1.133567E-03  20.6314
   17.4000  1.106956E-03  23.0733
   17.5000  1.154744E-03  24.5863
   17.6000  1.220805E-03  24.1142
   17.7000  1.237638E-03  22.1511
   17.8000  1.175256E-03  20.0591
   17.9000  1.061741E-03  19.2977
   18.0000  9.616863E-04  20.6507
   18.1000  9.292770E-04  23.3314
   18.2000  9.698208E-04  25.2673
   18.3000  1.037094E-03  25.0814
   18.4000  1.067384E-03  23.1096
   18.5000  1.024950E-03  20.7248
   18.6000  9.265537E-04  19.5131
   18.7000  8.284540E-04  20.5434
   18.8000  7.859523E-04  23.3642
   18.9000  8.145614E-04  25.8501
   19.0000  8.801310E-04  26.1766
   19.1000  9.237595E-04  24.3621
   19.2000  9.034047E-04  21.7195
   19.3000  8.226663E-04  19.9333
   19.4000  7.272654E-04  20.3792
   19.5000  6.724379E-04  23.1189
   19.6000  6.846169E-04  26.2055
   19.7000  7.438480E-04  27.3028
   19.8000  7.985082E-04  25.8955
   19.9000  8.014128E-04  23.1217
   20.0000  7.419965E-04  20.7126
   20.1000  6.526936E-04  20.3128
   20.2000  5.859144E-04  22.6075
   20.3000  5.779973E-04  26.1784
   20.4000  6.248736E-04  28.2897
   20.5000  6.856668E-04  27.6317
   20.6000  7.110966E-04  24.9730
   20.7000  6.768560E-04  22.0146
   20.8000  5.994490E-04  20.5860
   20.9000  5.242383E-04  21.9731
   21.0000  4.944890E-04  25.6472
   21.1000  5.224771E-04  28.8867
   21.2000  5.819000E-04  29.3925
   21.3000  6.261543E-04  27.2387
   21.4000  6.197233E-04  23.9654
   21.5000  5.614783E-04  21.4877
   21.6000  4.847591E-04  21.5377
   21.7000  4.347083E-04  24.6434
   21.8000  4.382843E-04  28.8035
   21.9000  4.868619E-04  30.8688
   22.0000  5.425371E-04  29.7588
   22.1000  5.635057E-04  26.5942
   22.2000  5.314792E-04  23.2734
   22.3000  4.631419E-04  21.7678
   22.4000  3.987486E-04  23.5012
   22.5000  3.754621E-04  27.8534
   22.6000  4.034002E-04  31.6183
   22.7000  4.594278E-04  32.1964
   22.8000  5.027018E-04  29.7742
   22.9000  5.013025E-04  26.0686
   23.0000  4.526218E-04  23.1285
   23.1000  3.845638E-04  22.8956
   23.2000  3.372223E-04  26.2355
   23.3000  3.370329E-04  31.1818
   23.4000  3.800784E-04  33.9940
   23.5000  4.349895E-04  33.1554
   23.6000  4.633103E-04  29.7888
   23.7000  4.440074E-04  25.9027
   23.8000  3.865633E-04  23.6224
   23.9000  3.246083E-04  24.7830
   24.0000  2.943786E-04  29.4565
   24.1000  3.118755E-04  34.4219
   24.2000  3.629836E-04  36.0890
   24.3000  4.126572E-04  34.0692
   24.4000  4.271290E-04  30.0667
   24.5000  3.950008E-04  26.2336
   24.6000  3.341625E-04  24.7530
   24.7000  2.803724E-04  27.2847
   24.8000  2.649222E-04  32.9619
   24.9000  2.951923E-04  37.5979
   25.0000  3.502270E-04  38.1750
   25.1000  3.938821E-04  35.2302
   25.2000  3.972523E-04  30.8036
   25.3000  3.564389E-04  27.1340
   25.4000  2.948504E-04  26.4717
   25.5000  2.487895E-04  30.2685
   25.6000  2.450963E-04  36.6922
   25.7000  2.847771E-04  40.8939
   25.8000  3.423615E-04  40.5549
   25.9000  3.814259E-04  36.8967
   26.0000  3.768142E-04  32.1583
   26.1000  3.299020E-04  28.6539
   26.2000  2.679536E-04  28.7308
   26.3000  2.276468E-04  33.6689
   26.4000  2.330124E-04  40.7355
   26.5000  2.807521E-04  44.5890
   26.6000  3.420191E-04  43.5428
   26.7000  3.795213E-04  39.3201
   26.8000  3.698621E-04  34.2951
   26.9000  3.178162E-04  30.8655
   27.0000  2.538508E-04  31.5270
   27.1000  2.164071E-04  37.5114
   27.2000  2.290158E-04  45.2980
   27.3000  2.859461E-04  49.0202
   27.4000  3.549463E-04  47.4741
   27.5000  3.957796E-04  42.7774
   27.6000  3.839983E-04  37.4245
   27.7000  3.259347E-04  33.9046
   27.8000  2.560629E-04  34.9346
   27.9000  2.175489E-04  41.9236
   28.0000  2.371264E-04  50.6798
   28.1000  3.085179E-04  54.5778
   28.2000  3.946294E-04  52.7183
   28.3000  4.479475E-04  47.5892
   28.4000  4.380968E-04  41.8177
   28.5000  3.707982E-04  37.9907
   28.6000  2.870036E-04  39.1190
   28.7000  2.413212E-04  47.0983
   28.8000  2.710523E-04  57.2226
   28.9000  3.728731E-04  61.6519
   29.0000  5.011733E-04  59.6179
   29.1000  5.910230E-04  54.0414
   29.2000  5.944279E-04  47.7135
   29.3000  5.108963E-04  43.3180
   29.4000  3.941428E-04  44.2026
   29.5000  3.287308E-04  53.1039
   29.6000  3.859399E-04  65.0153
   29.7000  5.804210E-04  70.2293
   29.8000  8.521491E-04  67.9745
   29.9000  1.087795E-03  61.7411
   30.0000  1.176915E-03  54.5219
   30.1000  1.079809E-03  49.0627
   30.2000  8.755920E-04  49.0077
   30.3000  7.641725E-04  58.1584
   30.4000  1.011829E-03  71.4196
   30.5000  1.854285E-03  76.4057
   30.6000  3.391269E-03  72.1447
   30.7000  5.516171E-03  62.5265
   30.8000  7.915825E-03  50.0907
   30.9000  1.014339E-02  36.1402
   31.0000  1.174486E-02  21.3784
   31.1000  1.238340E-02  6.23209
   31.2000  1.194068E-02 -9.00585
   31.3000  1.052136E-02 -24.0743
   31.4000  8.432622E-03 -38.6893
   31.5000  6.094167E-03 -52.4084
   31.6000  3.912621E-03 -64.4776
   31.7000  2.196564E-03 -73.4271
   31.8000  1.086812E-03 -76.2154
   31.9000  5.518833E-04 -68.0958
   32.0000  4.329326E-04 -51.9206
   32.1000  5.208336E-04 -43.1365
   32.2000  6.312981E-04 -44.3849
   32.3000  6.546302E-04 -50.6489
   32.4000  5.673299E-04 -58.3214
   32.5000  4.110495E-04 -64.7413
   32.6000  2.535160E-04 -66.6657
   32.7000  1.504185E-04 -59.5520
   32.8000  1.226991E-04 -43.8109
   32.9000  1.543875E-04 -32.7006
   33.0000  2.072844E-04 -31.6328
   33.1000  2.425851E-04 -36.4166
   33.2000  2.385863E-04 -43.3284
   33.3000  1.972863E-04 -49.7710
   33.4000  1.391032E-04 -53.0559
   33.5000  9.010262E-05 -49.5452
   33.6000  6.864036E-05 -37.3734
   33.7000  7.774291E-05 -24.7736
   33.8000  1.057531E-04 -20.5653
   33.9000  1.337829E-04 -23.2569
   34.0000  1.455557E-04 -29.1853
   34.1000  1.348168E-04 -35.7003
   34.2000  1.070733E-04 -40.5004
   34.3000  7.564892E-05 -40.8022
   34.4000  5.446122E-05 -33.7732
   34.5000  5.129219E-05 -21.7191
   34.6000  6.468419E-05 -13.7229
   34.7000  8.546806E-05 -13.1024
   34.8000  1.018193E-04 -17.2476
   34.9000  1.051036E-04 -23.3255
   35.0000  9.369681E-05 -29.1327
   35.1000  7.318770E-05 -32.4634
   35.2000  5.315827E-05 -30.6858
   35.3000  4.234131E-05 -22.3487
   35.4000  4.454869E-05 -12.0215
   35.5000  5.720114E-05 -6.91162
   35.6000  7.297887E-05 -7.94379
   35.7000  8.357298E-05 -12.6097
   35.8000  8.365262E-05 -18.5372
   35.9000  7.317863E-05 -23.7360
   36.0000  5.711099E-05 -26.0788
   36.1000  4.278322E-05 -23.2237
   36.2000  3.635956E-05 -14.7695
   36.3000  4.000680E-05 -5.87427
   36.4000  5.110418E-05 -2.22926
   36.5000  6.370585E-05 -3.94428
   36.6000  7.146482E-05 -8.73510
   36.7000  7.059384E-05 -14.4818
   36.8000  6.148122E-05 -19.3140
   36.9000  4.832185E-05 -21.2123
   37.0000  3.700540E-05 -18.0808
   37.1000  3.234400E-05 -9.95741
   37.2000  3.590220E-05 -1.84743
   37.3000  4.542779E-05  1.29403
   37.4000  5.604313E-05 -0.530525
   37.5000  6.256815E-05 -5.23671
   37.6000  6.188812E-05 -10.8456
   37.7000  5.428485E-05 -15.5831
   37.8000  4.317138E-05 -17.5385
   37.9000  3.343280E-05 -14.7538
   38.0000  2.916772E-05 -7.17719
   38.1000  3.187625E-05  0.710151
   38.2000  3.988722E-05  4.07357
   38.3000  4.921478E-05  2.59035
   38.4000  5.542461E-05 -1.85443
   38.5000  5.561980E-05 -7.35555
   38.6000  4.967293E-05 -12.2199
   38.7000  4.019230E-05 -14.6524
   38.8000  3.126651E-05 -12.7549
   38.9000  2.662084E-05 -6.01228
   39.0000  2.798639E-05  1.98111
   39.1000  3.440921E-05  6.18714
   39.2000  4.275085E-05  5.51628
   39.3000  4.913208E-05  1.57508
   39.4000  5.064485E-05 -3.77419
   39.5000  4.658291E-05 -8.88850
   39.6000  3.867869E-05 -12.0961
   39.7000  3.027730E-05 -11.5574
   39.8000  2.485152E-05 -6.15645
   39.9000  2.449686E-05  1.87203
   40.0000  2.908375E-05  7.42386
   40.1000  3.637364E-05  8.14455
   40.2000  4.303800E-05  5.08787
   40.3000  4.610739E-05  7.432926E-02
   40.4000  4.421806E-05 -5.26320
   40.5000  3.814194E-05 -9.36821
   40.6000  3.039861E-05 -10.5153
   40.7000  2.414629E-05 -7.13181
   40.8000  2.183632E-05  0.240820
   40.9000  2.421356E-05  7.29171
   41.0000  3.004656E-05  10.0900
   41.1000  3.670269E-05  8.52393
   41.2000  4.127439E-05  4.23743
   41.3000  4.179255E-05 -1.09884
   41.4000  3.801020E-05 -5.99451
   41.5000  3.145510E-05 -8.89017
   41.6000  2.475755E-05 -8.08134
   41.7000  2.054281E-05 -2.64934
   41.8000  2.035999E-05  5.15663
   41.9000  2.408517E-05  10.5666
   42.0000  3.001457E-05  11.3756
   42.1000  3.559557E-05  8.51263
   42.2000  3.848027E-05  3.66487
   42.3000  3.746186E-05 -1.65200
   42.4000  3.292322E-05 -6.01495
   42.5000  2.664784E-05 -7.86059
   42.6000  2.106975E-05 -5.60777
   42.7000  1.828686E-05  0.925526
   42.8000  1.924617E-05  8.43542
   42.9000  2.339710E-05  12.5637
   43.0000  2.894747E-05  12.2340
   43.1000  3.360148E-05  8.73674
   43.2000  3.546644E-05  3.67781
   43.3000  3.378238E-05 -1.53034
   43.4000  2.918532E-05 -5.51604
   43.5000  2.342434E-05 -6.74000
   43.6000  1.865875E-05 -3.75767
   43.7000  1.661743E-05  3.17186
   43.8000  1.794459E-05  10.3880
   43.9000  2.198488E-05  13.9311
   44.0000  2.706473E-05  13.1856
   44.1000  3.115573E-05  9.50309
   44.2000  3.265070E-05  4.41612
   44.3000  3.095748E-05 -0.738199
   44.4000  2.670028E-05 -4.64311
   44.5000  2.144676E-05 -5.81894
   44.6000  1.710393E-05 -2.86978
   44.7000  1.519840E-05  3.97902
   44.8000  1.631800E-05  11.2213
   44.9000  1.991956E-05  14.9473
   45.0000  2.455768E-05  14.4322
   45.1000  2.844161E-05  10.9418
   45.2000  3.009542E-05  5.96009
   45.3000  2.889141E-05  0.776643
   45.4000  2.525583E-05 -3.36616
   45.5000  2.048670E-05 -5.07590
   45.6000  1.626315E-05 -2.93133
   45.7000  1.403160E-05  3.31063
   45.8000  1.449145E-05  10.8275
   45.9000  1.736718E-05  15.4900
   46.0000  2.152815E-05  15.8986
   46.1000  2.541486E-05  13.0398
   46.2000  2.759889E-05  8.36497
   46.3000  2.728549E-05  3.14838
   46.4000  2.457356E-05 -1.43938
   46.5000  2.040035E-05 -4.13123
   46.6000  1.619177E-05 -3.51239
   46.7000  1.335705E-05  1.30192
   46.8000  1.279598E-05  8.81025
   46.9000  1.460645E-05  14.9786
   47.0000  1.807082E-05  17.1445
   47.1000  2.192023E-05  15.5645
   47.2000  2.478294E-05  11.5899
   47.3000  2.565541E-05  6.52780
   47.4000  2.422822E-05  1.51117
   47.5000  2.097751E-05 -2.32908
   47.6000  1.698018E-05 -3.70304
   47.7000  1.354111E-05 -1.32252
   47.8000  1.175019E-05  4.94208
   47.9000  1.212626E-05  12.3890
   48.0000  1.445914E-05  17.1471
   48.1000  1.789778E-05  17.8354
   48.2000  2.124804E-05  15.3071
   48.3000  2.337130E-05  10.8969
   48.4000  2.355456E-05  5.78147
   48.5000  2.173028E-05  1.00893
   48.6000  1.848547E-05 -2.32263
   48.7000  1.484940E-05 -2.95054
   48.8000  1.195559E-05  0.262339
   48.9000  1.067642E-05  6.99566
   49.0000  1.134987E-05  14.1791
   49.1000  1.368713E-05  18.3119
   49.2000  1.688003E-05  18.5117
   49.3000  1.986990E-05  15.7462
   49.4000  2.168505E-05  11.2819
   49.5000  2.174233E-05  6.21283
   49.6000  2.002048E-05  1.52116
   49.7000  1.704878E-05 -1.75662
   49.8000  1.373150E-05 -2.42283
   49.9000  1.106000E-05  0.620480
   50.0000  9.804913E-06  7.16520
   50.1000  1.028917E-05  14.4003
   50.2000  1.229978E-05  18.8622
   50.3000  1.516779E-05  19.4773
   50.4000  1.798104E-05  17.0714
   50.5000  1.986441E-05  12.8557
   50.6000  2.023995E-05  7.88681
   50.7000  1.899221E-05  3.09229
   50.8000  1.649025E-05 -0.582784
   50.9000  1.346283E-05 -2.04691
   51.0000  1.077944E-05 -0.165083
   51.1000  9.188241E-06  5.41371
   51.2000  9.103196E-06  12.7863
   51.3000  1.049243E-05  18.4394
   51.4000  1.289907E-05  20.4367
   51.5000  1.558376E-05  19.1064
   51.6000  1.774531E-05  15.5669
   51.7000  1.874982E-05  10.8866
   51.8000  1.830528E-05  5.96955
   51.9000  1.653827E-05  1.66675
   52.0000  1.394297E-05 -1.08072
   52.1000  1.123558E-05 -1.18960
   52.2000  9.147277E-06  2.25039
   52.3000  8.221414E-06  8.83636
   52.4000  8.667304E-06  15.8758
   52.5000  1.031192E-05  20.2778
   52.6000  1.265832E-05  21.0830
   52.7000  1.502969E-05  19.0053
   52.8000  1.675731E-05  15.1242
   52.9000  1.736334E-05  10.3895
   53.0000  1.668195E-05  5.61381
   53.1000  1.489613E-05  1.59217
   53.2000  1.248070E-05 -0.777381
   53.3000  1.006506E-05 -0.472759
   53.4000  8.266644E-06  3.28809
   53.5000  7.524156E-06  9.93785
   53.6000  7.991415E-06  16.8057
   53.7000  9.503116E-06  21.0439
   53.8000  1.162669E-05  21.8321
   53.9000  1.378244E-05  19.8541
   54.0000  1.539535E-05  16.1195
   54.1000  1.604301E-05  11.5167
   54.2000  1.555964E-05  6.80138
   54.3000  1.406859E-05  2.69894
   54.4000  1.194477E-05  1.663029E-02
   54.5000  9.714549E-06 -0.309206
   54.6000  7.917849E-06  2.56354
   54.7000  6.974231E-06  8.53231
   54.8000  7.082336E-06  15.5641
   54.9000  8.178129E-06  20.7397
   55.0000  9.956939E-06  22.6514
   55.1000  1.195492E-05  21.6147
   55.2000  1.366574E-05  18.5444
   55.3000  1.466599E-05  14.3206
   55.4000  1.471114E-05  9.67700
   55.5000  1.379313E-05  5.27657
   55.6000  1.213032E-05  1.80720
   55.7000  1.011455E-05  6.575859E-02
   55.8000  8.210929E-06  0.930125
   55.9000  6.846812E-06  4.96960
   56.0000  6.313674E-06  11.4914
   56.1000  6.704176E-06  18.0854
   56.2000  7.895242E-06  22.2988
   56.3000  9.583320E-06  23.3765
   56.4000  1.135941E-05  21.8536
   56.5000  1.280333E-05  18.5938
   56.6000  1.358155E-05  14.3751
   56.7000  1.351778E-05  9.84992
   56.8000  1.262831E-05  5.61459
   56.9000  1.111325E-05  2.29748
   57.0000  9.305328E-06  0.627717
   57.1000  7.594258E-06  1.40610
   57.2000  6.339935E-06  5.17651
   57.3000  5.792100E-06  11.4020
   57.4000  6.043058E-06  17.9763
   57.5000  7.010346E-06  22.5345
