Cr/Ti d=3.5nm s=0.2nm N=40 at 350.eV, P=1.
 Angle (deg), Reflectivity, Phase(deg)
   0.000000  1.00000  180.000
   0.100000  0.992094  178.118
   0.200000  0.984245  176.236
   0.300000  0.976443  174.353
   0.400000  0.968684  172.468
   0.500000  0.960959  170.581
   0.600000  0.953263  168.691
   0.700000  0.945589  166.798
   0.800000  0.937930  164.902
   0.900000  0.930278  163.000
   1.00000  0.922630  161.094
   1.10000  0.914976  159.183
   1.20000  0.907311  157.265
   1.30000  0.899629  155.340
   1.40000  0.891921  153.408
   1.50000  0.884181  151.468
   1.60000  0.876401  149.518
   1.70000  0.868575  147.560
   1.80000  0.860694  145.591
   1.90000  0.852752  143.611
   2.00000  0.844739  141.620
   2.10000  0.836644  139.615
   2.20000  0.828461  137.598
   2.30000  0.820178  135.565
   2.40000  0.811788  133.518
   2.50000  0.803275  131.454
   2.60000  0.794629  129.372
   2.70000  0.785839  127.272
   2.80000  0.776889  125.152
   2.90000  0.767766  123.011
   3.00000  0.758453  120.848
   3.10000  0.748932  118.661
   3.20000  0.739185  116.449
   3.30000  0.729191  114.209
   3.40000  0.718927  111.941
   3.50000  0.708367  109.642
   3.60000  0.697484  107.311
   3.70000  0.686248  104.945
   3.80000  0.674621  102.542
   3.90000  0.662567  100.100
   4.00000  0.650044  97.6157
   4.10000  0.636992  95.0858
   4.20000  0.623373  92.5087
   4.30000  0.609119  89.8808
   4.40000  0.594161  87.1989
   4.50000  0.578418  84.4596
   4.60000  0.561818  81.6610
   4.70000  0.544245  78.7988
   4.80000  0.525597  75.8711
   4.90000  0.505769  72.8779
   5.00000  0.484654  69.8204
   5.10000  0.462125  66.7015
   5.20000  0.438122  63.5316
   5.30000  0.412598  60.3254
   5.40000  0.385623  57.1090
   5.50000  0.357405  53.9197
   5.60000  0.328312  50.8054
   5.70000  0.298943  47.8248
   5.80000  0.270049  45.0372
   5.90000  0.242372  42.4899
   6.00000  0.216588  40.2132
   6.10000  0.193112  38.2132
   6.20000  0.172126  36.4776
   6.30000  0.153599  34.9825
   6.40000  0.137356  33.6980
   6.50000  0.123176  32.5931
   6.60000  0.110792  31.6400
   6.70000  9.997439E-02  30.8192
   6.80000  9.051598E-02  30.1114
   6.90000  8.222996E-02  29.4908
   7.00000  7.491751E-02  28.9394
   7.10000  6.842276E-02  28.4612
   7.20000  6.267873E-02  28.0584
   7.30000  5.761265E-02  27.7031
   7.40000  5.309601E-02  27.3609
   7.50000  4.899048E-02  27.0431
   7.60000  4.525964E-02  26.7936
   7.70000  4.194678E-02  26.6138
   7.80000  3.903058E-02  26.4382
   7.90000  3.637908E-02  26.2159
   8.00000  3.387742E-02  25.9913
   8.10000  3.154130E-02  25.8577
   8.20000  2.946899E-02  25.8272
   8.30000  2.768241E-02  25.7896
   8.40000  2.606400E-02  25.6406
   8.50000  2.447382E-02  25.4253
   8.60000  2.290549E-02  25.3031
   8.70000  2.148137E-02  25.3595
   8.80000  2.029543E-02  25.4795
   8.90000  1.928692E-02  25.4596
   9.00000  1.829721E-02  25.2472
   9.10000  1.723645E-02  25.0233
   9.20000  1.617813E-02  25.0190
   9.30000  1.527332E-02  25.2527
   9.40000  1.457855E-02  25.4756
   9.50000  1.398991E-02  25.4252
   9.60000  1.334527E-02  25.1222
   9.70000  1.259182E-02  24.8685
   9.80000  1.183337E-02  24.9565
   9.90000  1.122322E-02  25.3529
   10.0000  1.080400E-02  25.6903
   10.1000  1.046371E-02  25.6313
   10.2000  1.004410E-02  25.2276
   10.3000  9.493822E-03  24.8830
   10.4000  8.915066E-03  24.9872
   10.5000  8.462225E-03  25.5268
   10.6000  8.192183E-03  26.0410
   10.7000  8.009790E-03  26.0608
   10.8000  7.758428E-03  25.5788
   10.9000  7.364168E-03  25.0611
   11.0000  6.901891E-03  25.0457
   11.1000  6.523414E-03  25.6567
   11.2000  6.317326E-03  26.4182
   11.3000  6.229137E-03  26.6702
   11.4000  6.111799E-03  26.2132
   11.5000  5.857454E-03  25.4796
   11.6000  5.491030E-03  25.1654
   11.7000  5.145744E-03  25.6643
   11.8000  4.943385E-03  26.6593
   11.9000  4.889350E-03  27.3260
   12.0000  4.868681E-03  27.1197
   12.1000  4.747149E-03  26.2609
   12.2000  4.486075E-03  25.5134
   12.3000  4.171857E-03  25.6032
   12.4000  3.940988E-03  26.6119
   12.5000  3.863576E-03  27.7750
   12.6000  3.885791E-03  28.1378
   12.7000  3.877038E-03  27.4560
   12.8000  3.739383E-03  26.3395
   12.9000  3.487545E-03  25.7477
   13.0000  3.233816E-03  26.3107
   13.1000  3.094225E-03  27.7345
   13.2000  3.093943E-03  28.8943
   13.3000  3.148199E-03  28.8781
   13.4000  3.133408E-03  27.7836
   13.5000  2.986873E-03  26.5225
   13.6000  2.755544E-03  26.1607
   13.7000  2.555863E-03  27.1829
   13.8000  2.480156E-03  28.9256
   13.9000  2.523242E-03  30.0032
   14.0000  2.589015E-03  29.6218
   14.1000  2.567601E-03  28.1847
   14.2000  2.421677E-03  26.8289
   14.3000  2.213809E-03  26.6922
   14.4000  2.055608E-03  28.1219
   14.5000  2.020155E-03  30.1328
   14.6000  2.086150E-03  31.1326
   14.7000  2.156249E-03  30.4462
   14.8000  2.133438E-03  28.7155
   14.9000  1.995124E-03  27.2537
   15.0000  1.808695E-03  27.2763
   15.1000  1.678434E-03  29.0499
   15.2000  1.665462E-03  31.3297
   15.3000  1.742493E-03  32.3244
   15.4000  1.816030E-03  31.4169
   15.5000  1.798039E-03  29.4198
   15.6000  1.671863E-03  27.7928
   15.7000  1.503028E-03  27.8605
   15.8000  1.388846E-03  29.9033
   15.9000  1.385291E-03  32.4934
   16.0000  1.466264E-03  33.6074
   16.1000  1.544442E-03  32.5865
   16.2000  1.536933E-03  30.3422
   16.3000  1.426168E-03  28.4609
   16.4000  1.271410E-03  28.4160
   16.5000  1.163975E-03  30.6233
   16.6000  1.159907E-03  33.5845
   16.7000  1.239669E-03  34.9865
   16.8000  1.323729E-03  33.9932
   16.9000  1.331358E-03  31.5354
   17.0000  1.239030E-03  29.3036
   17.1000  1.096383E-03  28.9518
   17.2000  9.890310E-04  31.1630
   17.3000  9.766277E-04  34.5354
   17.4000  1.050300E-03  36.4305
   17.5000  1.140224E-03  35.6551
   17.6000  1.166489E-03  33.0575
   17.7000  1.096136E-03  30.4009
   17.8000  9.658381E-04  29.5264
   17.9000  8.547039E-04  31.4971
   18.0000  8.276293E-04  35.2477
   18.1000  8.897168E-04  37.8564
   18.2000  9.834891E-04  37.5562
   18.3000  1.030300E-03  34.9612
   18.4000  9.858975E-04  31.8615
   18.5000  8.707853E-04  30.2615
   18.6000  7.549813E-04  31.6607
   18.7000  7.085457E-04  35.6105
   18.8000  7.527303E-04  39.1183
   18.9000  8.458163E-04  39.6252
   19.0000  9.129464E-04  37.2730
   19.1000  8.983601E-04  33.8042
   19.2000  8.036271E-04  31.3419
   19.3000  6.858134E-04  31.7873
   19.4000  6.176097E-04  35.5435
   19.5000  6.371607E-04  40.0013
   19.6000  7.223076E-04  41.7065
   19.7000  8.064182E-04  39.9624
   19.8000  8.244186E-04  36.3265
   19.9000  7.570912E-04  32.9881
   20.0000  6.436739E-04  32.1399
   20.1000  5.546194E-04  35.0936
   20.2000  5.435520E-04  40.2528
   20.3000  6.111153E-04  43.5295
   20.4000  7.049686E-04  42.9028
   20.5000  7.555842E-04  39.4629
   20.6000  7.231866E-04  35.4064
   20.7000  6.241949E-04  33.0873
   20.8000  5.198033E-04  34.5411
   20.9000  4.747000E-04  39.6908
   21.0000  5.138023E-04  44.6926
   21.1000  6.058451E-04  45.8208
   21.2000  6.845634E-04  43.1364
   21.3000  6.929549E-04  38.7238
   21.4000  6.210697E-04  35.0129
   21.5000  5.123348E-04  34.4352
   21.6000  4.346366E-04  38.4303
   21.7000  4.353996E-04  44.7215
   21.8000  5.103497E-04  48.2375
   21.9000  6.064600E-04  47.0988
   22.0000  6.569691E-04  42.9248
   22.1000  6.251938E-04  38.1900
   22.2000  5.284959E-04  35.4567
   22.3000  4.268331E-04  37.1248
   22.4000  3.837058E-04  43.3394
   22.5000  4.246689E-04  49.4414
   22.6000  5.207011E-04  50.8474
   22.7000  6.069833E-04  47.7885
   22.8000  6.249329E-04  42.6820
   22.9000  5.601357E-04  38.1438
   23.0000  4.517687E-04  36.8818
   23.1000  3.675031E-04  41.0162
   23.2000  3.600582E-04  48.6610
   23.3000  4.331266E-04  53.5247
   23.4000  5.387333E-04  52.8043
   23.5000  6.077409E-04  48.2852
   23.6000  5.940130E-04  42.6898
   23.7000  5.040747E-04  38.7317
   23.8000  3.933609E-04  39.2881
   23.9000  3.313558E-04  45.8011
   24.0000  3.574598E-04  53.9162
   24.1000  4.555941E-04  57.0255
   24.2000  5.637608E-04  54.4618
   24.3000  6.128639E-04  48.8877
   24.4000  5.703626E-04  43.1125
   24.5000  4.613112E-04  39.9901
   24.6000  3.534011E-04  42.5567
   24.7000  3.150153E-04  51.1118
   24.8000  3.722057E-04  58.9005
   24.9000  4.914452E-04  60.1866
   25.0000  5.996628E-04  56.1322
   25.1000  6.292518E-04  49.8020
   25.2000  5.605641E-04  44.0307
   25.3000  4.351600E-04  41.8704
   25.4000  3.313783E-04  46.4874
   25.5000  3.164381E-04  56.6422
   25.6000  4.041956E-04  63.6416
   25.7000  5.451040E-04  63.2893
   25.8000  6.552132E-04  58.0586
   25.9000  6.672537E-04  51.1625
   26.0000  5.728822E-04  45.4616
   26.1000  4.296642E-04  44.2595
   26.2000  3.280047E-04  50.8350
   26.3000  3.364261E-04  62.2065
   26.4000  4.585194E-04  68.2910
   26.5000  6.281014E-04  66.5803
   26.6000  7.470822E-04  60.4186
   26.7000  7.444919E-04  53.0540
   26.8000  6.211827E-04  47.3836
   26.9000  4.528597E-04  46.9973
   27.0000  3.474861E-04  55.3401
   27.1000  3.811286E-04  67.7123
   27.2000  5.494966E-04  73.0141
   27.3000  7.659809E-04  70.2422
   27.4000  9.096565E-04  63.3273
   27.5000  8.970156E-04  55.5182
   27.6000  7.352547E-04  49.7458
   27.7000  5.242633E-04  49.8898
   27.8000  4.031654E-04  59.7185
   27.9000  4.687627E-04  73.0899
   28.0000  7.133998E-04  77.9100
   28.1000  1.020700E-03  74.3603
   28.2000  1.226841E-03  66.8186
   28.3000  1.215627E-03  58.5333
   28.4000  9.937177E-04  52.4468
   28.5000  6.996618E-04  52.6874
   28.6000  5.358679E-04  63.6002
   28.7000  6.539545E-04  78.1433
   28.8000  1.057167E-03  82.8970
   28.9000  1.579089E-03  78.8240
   29.0000  1.961800E-03  70.7266
   29.1000  1.999323E-03  61.8795
   29.2000  1.670407E-03  55.1919
   29.3000  1.185169E-03  54.9395
   29.4000  9.038808E-04  66.3090
   29.5000  1.153461E-03  82.2467
   29.6000  2.026108E-03  87.3477
   29.7000  3.273963E-03  82.8719
   29.8000  4.382031E-03  74.1141
   29.9000  4.815123E-03  64.4161
   30.0000  4.341580E-03  56.6051
   30.1000  3.292450E-03  54.9449
   30.2000  2.622642E-03  65.5945
   30.3000  3.695920E-03  82.4514
   30.4000  7.793319E-03  87.2113
   30.5000  1.550609E-02  80.7996
   30.6000  2.628809E-02  68.9198
   30.7000  3.847989E-02  54.4821
   30.8000  4.979954E-02  38.8328
   30.9000  5.805334E-02  22.6359
   31.0000  6.172812E-02  6.26269
   31.1000  6.031613E-02 -10.1126
   31.2000  5.422249E-02 -26.3312
   31.3000  4.466925E-02 -42.2503
   31.4000  3.339149E-02 -57.5885
   31.5000  2.225820E-02 -71.8108
   31.6000  1.291864E-02 -83.7982
   31.7000  6.391629E-03 -91.0345
   31.8000  2.866599E-03 -88.0988
   31.9000  1.765059E-03 -71.3933
   32.0000  2.069292E-03 -57.9461
   32.1000  2.749080E-03 -57.9825
   32.2000  3.095618E-03 -65.3788
   32.3000  2.853207E-03 -75.4024
   32.4000  2.151294E-03 -85.2954
   32.5000  1.318400E-03 -92.2293
   32.6000  6.766884E-04 -91.1722
   32.7000  3.972213E-04 -75.5443
   32.8000  4.575582E-04 -57.0561
   32.9000  6.947125E-04 -52.9760
   33.0000  9.092312E-04 -58.4879
   33.1000  9.629443E-04 -67.7883
   33.2000  8.281815E-04 -77.7955
   33.3000  5.768173E-04 -85.9992
   33.4000  3.263688E-04 -88.4865
   33.5000  1.758906E-04 -78.1896
   33.6000  1.619660E-04 -57.0380
   33.7000  2.519020E-04 -47.0142
   33.8000  3.705444E-04 -49.5894
   33.9000  4.427276E-04 -57.7512
   34.0000  4.286885E-04 -67.6621
   34.1000  3.374430E-04 -76.8950
   34.2000  2.148509E-04 -82.5264
   34.3000  1.163554E-04 -79.0265
   34.4000  7.899581E-05 -60.8269
   34.5000  1.061468E-04 -43.5708
   34.6000  1.703170E-04 -40.9937
   34.7000  2.302616E-04 -46.9316
   34.8000  2.523912E-04 -56.1481
   34.9000  2.258044E-04 -65.8664
   35.0000  1.646365E-04 -73.7370
   35.1000  9.835316E-05 -76.0717
   35.2000  5.583678E-05 -66.3270
   35.3000  5.170528E-05 -45.7936
   35.4000  8.091112E-05 -35.0016
   35.5000  1.232385E-04 -36.6496
   35.6000  1.545295E-04 -44.1101
   35.7000  1.584983E-04 -53.5511
   35.8000  1.336536E-04 -62.6478
   35.9000  9.244678E-05 -68.8941
   36.0000  5.405316E-05 -67.8920
   36.1000  3.462813E-05 -53.7924
   36.2000  4.002403E-05 -35.1860
   36.3000  6.396353E-05 -29.0129
   36.4000  9.211276E-05 -32.7166
   36.5000  1.094883E-04 -40.7223
   36.6000  1.075316E-04 -49.9699
   36.7000  8.751861E-05 -58.3173
   36.8000  5.910163E-05 -63.0869
   36.9000  3.513007E-05 -59.6033
   37.0000  2.541563E-05 -43.8606
   37.1000  3.244469E-05 -27.9393
   37.2000  5.081670E-05 -24.1632
   37.3000  7.035407E-05 -28.6349
   37.4000  8.116295E-05 -36.6475
   37.5000  7.813065E-05 -45.5307
   37.6000  6.289862E-05 -53.2334
   37.7000  4.260148E-05 -57.0571
   37.8000  2.621034E-05 -52.5158
   37.9000  2.031803E-05 -37.0741
   38.0000  2.632352E-05 -22.8837
   38.1000  4.017165E-05 -19.8143
   38.2000  5.456671E-05 -24.2199
   38.3000  6.247590E-05 -31.9079
   38.4000  6.026802E-05 -40.3873
   38.5000  4.910239E-05 -47.6900
   38.6000  3.408458E-05 -51.2738
   38.7000  2.173164E-05 -47.1314
   38.8000  1.698068E-05 -33.1065
   38.9000  2.110972E-05 -19.5000
   39.0000  3.140469E-05 -15.8282
   39.1000  4.261428E-05 -19.4947
   39.2000  4.941342E-05 -26.5869
   39.3000  4.874275E-05 -34.6528
   39.4000  4.100410E-05 -41.8109
   39.5000  2.966848E-05 -45.7985
   39.6000  1.958028E-05 -43.1958
   39.7000  1.477616E-05 -31.4782
   39.8000  1.678731E-05 -17.8395
   39.9000  2.412793E-05 -12.4408
   40.0000  3.311322E-05 -14.6565
   40.1000  3.956416E-05 -20.8186
   40.2000  4.062370E-05 -28.3943
   40.3000  3.589572E-05 -35.5520
   40.4000  2.747375E-05 -40.3345
   40.5000  1.891022E-05 -39.9547
   40.6000  1.363605E-05 -31.5097
   40.7000  1.352054E-05 -18.2648
   40.8000  1.817327E-05 -10.2715
   40.9000  2.523430E-05 -10.1326
   41.0000  3.146174E-05 -14.8392
   41.1000  3.413530E-05 -21.6840
   41.2000  3.215120E-05 -28.7876
   41.3000  2.639514E-05 -34.4373
   41.4000  1.926754E-05 -36.4422
   41.5000  1.361746E-05 -32.0161
   41.6000  1.155190E-05 -20.8810
   41.7000  1.361158E-05 -10.3244
   41.8000  1.863283E-05 -6.73437
   41.9000  2.430998E-05 -9.11980
   42.0000  2.818504E-05 -14.7199
   42.1000  2.865106E-05 -21.4642
   42.2000  2.555311E-05 -27.7340
   42.3000  2.017531E-05 -31.8044
   42.4000  1.465608E-05 -31.4134
   42.5000  1.109341E-05 -24.5281
   42.6000  1.071089E-05 -13.5173
   42.7000  1.341586E-05 -5.83713
   42.8000  1.790637E-05 -4.60926
   42.9000  2.223804E-05 -8.01891
   43.0000  2.462137E-05 -13.7625
   43.1000  2.411235E-05 -20.1101
   43.2000  2.094105E-05 -25.5675
   43.3000  1.636296E-05 -28.4310
   43.4000  1.212314E-05 -26.6106
   43.5000  9.758834E-06 -18.9665
   43.6000  1.001895E-05 -9.01412
   43.7000  1.261409E-05 -3.04068
   43.8000  1.637669E-05 -2.74068
   43.9000  1.974821E-05 -6.34393
   44.0000  2.138889E-05 -11.8723
   44.1000  2.067597E-05 -17.7810
   44.2000  1.790224E-05 -22.6735
   44.3000  1.412243E-05 -24.9582
   44.4000  1.072562E-05 -22.8077
   44.5000  8.896805E-06 -15.5426
   44.6000  9.187297E-06 -6.53217
   44.7000  1.134082E-05 -1.10787
   44.8000  1.442422E-05 -0.755459
   44.9000  1.720435E-05 -4.01094
   45.0000  1.861208E-05 -9.11524
   45.1000  1.812938E-05 -14.6376
   45.2000  1.594933E-05 -19.2833
   45.3000  1.287391E-05 -21.6239
   45.4000  9.995329E-06 -20.0709
   45.5000  8.290272E-06 -13.9148
   45.6000  8.272126E-06 -5.63475
   45.7000  9.829472E-06  9.335647E-02
   45.8000  1.229450E-05  1.27480
   45.9000  1.470601E-05 -1.15558
   46.0000  1.616338E-05 -5.62433
   46.1000  1.614203E-05 -10.7696
   46.2000  1.465899E-05 -15.3953
   46.3000  1.224610E-05 -18.2459
   46.4000  9.734994E-06 -17.9385
   46.5000  7.959200E-06 -13.5227
   46.6000  7.462069E-06 -6.19664
   46.7000  8.323975E-06  0.231664
   46.8000  1.015325E-05  2.91270
   46.9000  1.224567E-05  1.86879
   47.0000  1.383676E-05 -1.61929
   47.1000  1.436473E-05 -6.24332
   47.2000  1.365380E-05 -10.8671
   47.3000  1.195264E-05 -14.3930
   47.4000  9.834876E-06 -15.6322
   47.5000  7.989071E-06 -13.4873
   47.6000  6.984831E-06 -7.91861
   47.7000  7.088181E-06 -1.20784
   47.8000  8.188085E-06  3.34940
   47.9000  9.849378E-06  4.36924
   48.0000  1.147067E-05  2.44340
   48.1000  1.249030E-05 -1.25448
   48.2000  1.256598E-05 -5.61752
   48.3000  1.167910E-05 -9.64054
   48.4000  1.012101E-05 -12.3169
   48.5000  8.390085E-06 -12.5979
   48.6000  7.018297E-06 -9.72734
   48.7000  6.400728E-06 -4.19950
   48.8000  6.675973E-06  1.62832
   48.9000  7.693413E-06  5.17763
   49.0000  9.074835E-06  5.63117
   49.1000  1.034386E-05  3.60487
   49.2000  1.107961E-05  0.110814
   49.3000  1.104697E-05 -3.87823
   49.4000  1.025950E-05 -7.46370
   49.5000  8.964461E-06 -9.74434
   49.6000  7.556435E-06 -9.82711
   49.7000  6.446067E-06 -7.14451
   49.8000  5.937374E-06 -2.20805
   49.9000  6.137183E-06  3.01037
   50.0000  6.933059E-06  6.35200
   50.1000  8.037801E-06  7.01025
   50.2000  9.083489E-06  5.40127
   50.3000  9.736946E-06  2.37252
   50.4000  9.796712E-06 -1.21631
   50.5000  9.246455E-06 -4.55797
   50.6000  8.252272E-06 -6.86072
   50.7000  7.103228E-06 -7.35535
   50.8000  6.121523E-06 -5.50300
   50.9000  5.566069E-06 -1.51489
   51.0000  5.561133E-06  3.23211
   51.1000  6.065322E-06  6.86009
   51.2000  6.892972E-06  8.28765
   51.3000  7.773741E-06  7.55119
   51.4000  8.435393E-06  5.26961
   51.5000  8.679380E-06  2.19104
   51.6000  8.436304E-06 -0.962528
   51.7000  7.776522E-06 -3.49531
   51.8000  6.884799E-06 -4.73567
   51.9000  6.002579E-06 -4.12528
   52.0000  5.356897E-06 -1.51111
   52.1000  5.099591E-06  2.45319
   52.2000  5.267859E-06  6.35603
   52.3000  5.780472E-06  8.85814
   52.4000  6.466499E-06  9.43416
   52.5000  7.115460E-06  8.30952
   52.6000  7.538012E-06  6.04760
   52.7000  7.614565E-06  3.27800
   52.8000  7.324377E-06  0.615389
   52.9000  6.746694E-06 -1.35058
   53.0000  6.032593E-06 -2.07779
   53.1000  5.362007E-06 -1.18360
   53.2000  4.895085E-06  1.31258
   53.3000  4.729678E-06  4.75617
   53.4000  4.881496E-06  8.01122
   53.5000  5.281792E-06  10.0803
   53.6000  5.802422E-06  10.5719
   53.7000  6.290647E-06  9.65185
   53.8000  6.609877E-06  7.76163
   53.9000  6.674564E-06  5.42158
   54.0000  6.467563E-06  3.14703
   54.1000  6.041575E-06  1.42838
   54.2000  5.502002E-06  0.704790
   54.3000  4.976183E-06  1.27770
   54.4000  4.581454E-06  3.15727
   54.5000  4.396436E-06  5.91025
   54.6000  4.443861E-06  8.72889
   54.7000  4.688434E-06  10.8007
   54.8000  5.048741E-06  11.6791
   54.9000  5.420533E-06  11.3525
   55.0000  5.703241E-06  10.0967
   55.1000  5.822586E-06  8.30178
   55.2000  5.749051E-06  6.38830
   55.3000  5.500281E-06  4.75950
   55.4000  5.133787E-06  3.77841
   55.5000  4.732064E-06  3.72212
   55.6000  4.379656E-06  4.69826
   55.7000  4.145242E-06  6.54588
   55.8000  4.065665E-06  8.81401
   55.9000  4.139629E-06  10.9027
   56.0000  4.331148E-06  12.3113
   56.1000  4.580413E-06  12.8098
   56.2000  4.818452E-06  12.4405
   56.3000  4.983980E-06  11.4223
   56.4000  5.035970E-06  10.0494
   56.5000  4.962340E-06  8.63714
   56.6000  4.778344E-06  7.48134
   56.7000  4.523778E-06  6.83381
   56.8000  4.249630E-06  6.86503
   56.9000  4.007994E-06  7.61524
   57.0000  3.839090E-06  8.95472
   57.1000  3.765208E-06  10.5897
   57.2000  3.786394E-06  12.1486
   57.3000  3.882310E-06  13.3086
   57.4000  4.019643E-06  13.8908
   57.5000  4.159037E-06  13.8805
